Sample File	C:\Users\vancelab\Desktop\Chamber\Raw data\Chamber_Water_SMPS_FreshSmoke_MRH_20230418.S80
Classifier Model	3080
DMA Model	3081
DMA Inner Radius(cm)	0.00937
DMA Outer Radius(cm)	0.01961
DMA Characteristic Length(cm)	0.44369
CPC Model	3788 High Flow
Reference Gas Viscosity (Pa*s)	1.83245e-005
Reference Mean Free Path (m)	6.73e-008
Reference Gas Temperature (K)	296.15
Reference Gas Pressure (kPa)	101.3
Channels/Decade	64
Multiple Charge Correction	TRUE
Nanoparticle Aggregate Mobility Analysis	FALSE
Diffusion Correction	TRUE
Gas Density	0.0012
Units	dw/dlogDp
Weight	Number
Sample #	1	2	3	4	5	6	7	8	9	10	11	12	13	14	15	16	17	18	19	20	21	22	23	24	25	26	27	28	29	30	31	32	33	34	35	36	37	38	39	40	41	42	43	44	45	46	47	48	49	50	51	52	53	54	55	56	57	58	59	60	61	62	63	64	65	66	67	68	69	70	71	72	73	74
Date	04/18/23	04/18/23	04/18/23	04/18/23	04/18/23	04/18/23	04/18/23	04/18/23	04/18/23	04/18/23	04/18/23	04/18/23	04/18/23	04/18/23	04/18/23	04/18/23	04/18/23	04/18/23	04/18/23	04/18/23	04/18/23	04/18/23	04/18/23	04/18/23	04/18/23	04/18/23	04/18/23	04/18/23	04/18/23	04/18/23	04/18/23	04/18/23	04/18/23	04/18/23	04/18/23	04/18/23	04/18/23	04/18/23	04/18/23	04/18/23	04/18/23	04/18/23	04/18/23	04/18/23	04/18/23	04/18/23	04/18/23	04/18/23	04/18/23	04/18/23	04/18/23	04/18/23	04/18/23	04/18/23	04/18/23	04/18/23	04/18/23	04/18/23	04/18/23	04/18/23	04/18/23	04/18/23	04/18/23	04/18/23	04/18/23	04/18/23	04/18/23	04/18/23	04/18/23	04/18/23	04/18/23	04/18/23	04/18/23	04/18/23
Start Time	16:09:00	16:12:00	16:15:01	16:18:00	16:21:01	16:24:00	16:27:01	16:30:00	16:33:00	16:36:00	16:39:00	16:42:00	16:45:00	16:48:00	16:51:00	16:54:00	16:57:00	17:00:00	17:03:00	17:06:00	17:09:00	17:12:00	17:15:00	17:18:00	17:21:00	17:24:00	17:27:00	17:30:00	17:33:00	17:36:00	17:39:00	17:42:00	17:45:00	17:48:00	17:51:00	17:54:00	17:57:00	18:00:00	18:03:00	18:06:00	18:09:00	18:12:00	18:15:00	18:18:00	18:21:00	18:24:00	18:27:00	18:30:00	18:33:00	18:36:00	18:39:00	18:42:00	18:45:00	18:48:00	18:51:00	18:54:00	18:57:00	19:00:00	19:03:00	19:06:00	19:09:00	19:12:00	19:15:00	19:18:00	19:21:00	19:24:00	19:27:00	19:30:00	19:33:00	19:36:00	19:39:00	19:42:00	19:45:00	19:48:00
Diameter Midpoint
 16.3	0	0	9239.41	2351.76	1076.15	247.64	106.148	96.2408	35.3885	35.3677	0	0	0	0	34.9439	0	0	0	0	0	0	0	0	0	0	0	0	0	0	0	0	0	0	0	0	0	0	0	0	0	0	0	0	0	0	0	0	0	0	0	0	0	0	0	0	0	0	0	0	0	0	0	0	0	0	0	0	0	0	0	0	0	0	0
 16.8	0	0	9486.43	3489.25	948.292	453.077	343.877	164.687	155.421	33.0698	0	33.0782	0	0	0	33.0868	33.0937	0	0	0	0	0	0	0	33.0765	0	0	0	0	0	0	0	0	0	0	0	0	0	0	0	0	0	0	0	0	0	0	0	0	0	0	0	0	0	0	0	0	0	0	0	0	0	0	0	0	0	0	0	0	0	0	0	0	0
 17.5	0	0	11086.8	3485.54	1238.24	536.564	266.904	257.536	102.452	93.0077	62.0417	62.0204	93.0764	62.0052	31.0224	31.0178	31.024	0	31.0011	0	0	0	30.9995	0	0	0	0	0	31.0148	0	0	0	0	0	0	0	0	0	0	0	0	0	0	0	0	0	30.992	0	0	0	0	0	0	0	0	0	0	0	0	0	0	0	0	0	0	0	0	0	0	0	0	0	0	0
 18.1	0	0	12369.9	3932.34	1388.51	912.192	436.648	213.703	116.456	9.90986	58.2307	39.018	29.1195	87.2969	87.3502	0	58.2362	29.1044	0	29.0949	0	0	0	0	0	0	0	29.1058	0	0	0	0	0	0	0	0	0	0	0	0	0	0	0	0	0	0	0	0	0	0	0	0	0	0	0	0	0	0	0	0	0	0	0	0	0	0	0	0	0	0	0	0	0	0
 18.8	0	0	12499.7	4053.8	1850.72	921.761	510.684	307.953	281.913	127.57	109.574	100.213	109.589	54.7575	109.579	0	0	0	0	0	0	0	0	0	0	0	0	0	0	0	0	0	0	0	0	0	0	0	0	0	0	0	0	0	0	0	0	0	0	0	0	0	0	0	0	0	0	0	0	0	0	0	0	0	0	0	0	0	0	0	0	0	0	0
 19.5	0	0	13321.5	4784.86	2041.42	1156.04	547.758	320.34	276.278	154.729	51.6028	25.7937	51.6094	25.7881	51.605	103.197	0	0	0	0	25.7992	0	0	0	25.7926	0	0	0	0	25.798	25.7903	0	0	0	0	0	0	0	0	0	0	0	0	0	0	0	0	0	0	0	0	0	0	0	0	0	0	0	0	0	0	0	0	0	0	0	0	0	0	0	0	0	0	0
 20.2	0	0	14755.4	5098.39	1935.63	1622.98	908.318	399.991	443.275	253.929	175.683	108.054	97.3242	78.3319	24.329	97.3042	24.33	24.32	0	0	0	72.9544	24.3142	0	24.3201	0	0	0	0	0	0	48.6281	0	0	0	0	0	0	0	0	0	0	24.319	0	0	0	0	0	0	0	0	0	0	0	0	0	0	0	0	0	0	0	0	0	0	0	0	0	0	0	0	0	0	0
 20.9	0	0	15430.4	6028.64	2597.68	1620.21	886.717	600.269	475.702	246.183	167.222	130.597	86.9225	56.263	81.6758	68.0099	79.8295	15.534	26.9689	13.8054	0	0	0	18.2316	0	0	0	0	21.3569	0	0	0	21.8223	21.9832	0	0	0	0	0	0	0	0	0	0	0	0	0	0	0	0	0	0	0	0	0	0	0	0	0	0	0	0	0	0	0	0	0	0	0	0	0	0	0	0
 21.7	0	0	16630	6516.27	2598.73	1634.07	856.163	818.911	554.18	265.724	186.912	100.977	120.132	12.0581	171.354	37.1615	53.2398	94.3845	21.1902	33.3876	37.2549	57.113	0	0	0	0	0	17.3524	0	0	0	20.2084	0	0	0	21.2608	0	0	0	0	0	0	0	0	0	20.0746	0	21.1225	0	0	0	0	0	0	0	0	0	0	0	0	0	0	21.5284	0	0	0	0	0	0	0	0	0	0	0
 22.5	0	0	18677.5	7792.27	4178.47	2123.06	1356.56	987.185	918.782	386.296	442.422	141.891	353.909	258.798	61.5891	161.146	82.6763	65.5446	126.748	51.6106	11.1321	31.841	31.9651	13.2191	35.8428	33.6053	14.5164	0	0	0	18.1957	15.804	0	18.7131	17.4866	0	17.9102	0	0	0	0	0	0	40.3754	0	0	0	0	0	0	0	0	0	0	0	0	0	0	0	0	0	0	0	0	0	0	0	0	0	0	0	0	0	0
 23.3	0	0	19789.2	8345.68	4317.19	2333.07	1501.75	1068.48	826.544	593.842	365.937	391.225	330.439	152.994	178.312	110.947	9.24484	116.45	140.175	80.9426	87.9521	44.8119	0	41.05	10.9625	69.8747	15.1311	51.4034	17.3591	36.783	0	33.5747	14.5897	17.4491	0	0	36.4484	0	0	0	17.1334	0	17.6774	3.87021	18.8008	0	0	0	0	18.319	18.6041	0	0	18.7916	0	0	0	0	0	0	0	0	0	0	0	0	19.2287	0	0	0	0	0	0	0
 24.1	0	0	20078.7	8869.2	4452.29	2799	1840.06	1115.72	1090.09	646.085	429.773	436.466	456.511	248.126	212.354	240.529	90.508	77.1332	145.615	153.804	64.1494	18.5397	144.778	1.43156	6.93475	10.3623	40.7946	24.6858	97.2634	44.187	0	30.8257	0	14.9355	0	0	13.2874	16.335	32.9493	0	17.541	15.3876	0	11.5809	17.1012	0	0	0	0	0	0	17.2517	0	0	0	18.1837	17.4135	0	0	17.25	0	0	0	0	16.9883	0	18.1796	0	0	0	16.8922	0	18.0254	0
 25.0	0	0	21793.7	9887.81	5182.67	3928.2	1978.67	1480.53	1437.58	977.97	835.507	422.093	424.777	477.266	239.118	214.384	145.433	186.334	148.108	113.075	60.8071	93.4169	219.52	22.5242	0	69.5339	18.5176	0.228763	52.4842	22.0805	42.3849	20.086	0	62.3323	0	13.4209	5.93008	63.9652	0	30.4696	15.1843	0	0	32.6634	32.2796	0	0	0	0	0	27.3295	8.14119	16.371	16.0285	0	0	10.6002	0	0	0	33.2446	0	16.8594	9.93514	0	0	0	15.9934	10.1404	0	0	0	0	0
 25.9	0	0	22861.6	11302	5584.75	4224.29	2715.16	2185.29	1682.98	1128.8	870.72	547.407	510.291	688.561	406.873	434.837	269.194	209.195	210.779	163.009	118.601	81.9175	114.712	95.3458	54.4794	72.3737	93.0116	91.5889	52.9658	60.4177	19.8365	0	8.32495	6.63514	19.5224	0	15.5116	9.55202	28.3812	0	28.5691	0	0	29.4209	12.4653	12.8752	11.9102	15.6071	0	13.4664	35.312	36.7188	15.158	0	14.238	14.3476	20.4916	0	14.4803	0	0	15.5148	15.117	4.85579	0	0	0	15.6561	4.72322	0	0	0	16.2626	0
 26.9	0	0	25279.5	12194.6	7016.17	5101.32	2853.4	2591.61	1946.49	1424.72	1194.82	1038.76	710.642	521.763	431.852	498.51	444.652	361.501	184.615	186.738	54.4959	140.42	169.193	170.387	92.8227	20.868	88.789	24.9747	60.9096	41.0248	11.5798	92.9647	66.0107	14.9976	36.8413	37.7504	22.1365	22.6522	21.7929	24.4129	26.0336	0	25.6772	9.7819	12.7287	42.6555	26.4539	29.264	12.4143	13.3907	14.9269	0	0	0	0	0	13.7646	0	0	45.5814	0	0	0	13.7105	0	14.8415	0	0	0	14.0241	0	0	0	0
 27.9	0	0	26763.8	14326.8	7545.3	5451.8	4484.54	3132.06	2687.4	1806.45	1350.28	1048.84	855.147	745.155	721.482	509.907	509.559	490.532	201.587	148.999	164.223	131.685	274.109	68.906	155	144.468	103.877	163.801	81.5968	51.1701	46.8431	100.121	42.0202	108.87	13.7327	0	0	45.2603	33.3172	36.8928	21.5495	0	20.3705	23.045	41.1439	0	99.5658	0	23.8576	0	10.8906	10.4664	24.6318	10.805	0	14.1422	0	0	0	0	12.2826	10.6784	0	28.393	0	14.6584	0	0	13.5774	27.6916	0	0	13.1965	0
 28.9	0	0	30603.3	14055.8	9013.52	7079.47	5076.25	3408.3	2682.93	2259.47	1639.02	1311.67	1152.67	948.14	701.618	742.477	650.251	321.563	425.155	330.886	312.594	324.562	206.978	157.912	222.736	122.583	243.84	168.131	161.398	147.143	181.705	63.5083	89.3447	46.2594	69.4845	38.3055	36.7733	54.7453	54.7078	0	67.6381	2.11944	13.8656	51.9025	20.5123	16.2885	45.1151	4.90613	20.9583	35.601	22.4112	24.6632	0	0	39.8021	4.63768	10.2301	0	37.3231	0	0	0	25.563	0	11.9882	0	28.1969	0	13.5229	0	0	0	11.5177	0
 30.0	0	0	30907.7	18592.4	10588.3	7742.71	5550.29	4287.02	3656	2364.59	1766.12	1553.29	1262.91	1462.94	793.134	945.986	937.201	578.238	564.57	712.489	375.134	401.91	258.882	367.767	305.096	252.579	150.069	135.719	124.866	120.497	153.799	95.338	88.1279	75.5924	167.614	122.669	30.7955	94.1312	98.2976	0	88.1236	37.9272	66.1663	35.6491	32.9865	78.1345	68.397	18.1181	3.46377	13.7976	17.4499	33.8908	25.9055	48.3291	0	19.9808	3.26621	21.2338	34.9654	23.1944	0	0	10.47	0	0	15.2848	24.0652	10.9435	0	13.1026	0	0	0	24.7046
 31.1	0	0	34018.4	20272.4	11431	9242.86	6538.51	4667.02	3635.57	3132.61	2655.66	1889.94	1341.05	1356.17	1149.47	1129.35	752.341	895.098	758.293	641.421	388.304	501.846	369.628	271.752	285.608	369.892	284.928	283.094	155.495	169.917	190.016	87.9228	176.714	95.4365	59.9886	14.958	82.0936	87.4008	28.103	41.8114	33.3975	0	79.4296	9.38073	70.111	97.7891	51.6763	27.205	48.6959	36.2975	41.97	17.886	39.3419	2.60809	19.8121	1.2074	18.9239	33.8902	0	5.55262	6.4827	19.3253	0	5.37333	7.99999	16.242	22.0608	10.4054	8.45491	10.596	11.5605	1.25666	0	29.8525
 32.2	0	0	35445	21195.9	12707.3	9669.22	7420.66	6426.42	4436.82	3653.86	2755.84	2457.13	1990.19	1531.55	1484.68	1319.97	1142.38	929.738	928.877	559.013	547.435	525.5	520.459	424.237	290.127	423.282	346.261	439.238	143.969	227.609	127.533	272.938	258.244	98.4146	173.072	85.5751	146.364	86.1614	139.541	109.932	61.6032	19.5744	45.6475	11.0331	21.9209	6.99655	28.7905	54.5236	79.2912	83.4661	24.6253	59.5584	16.4389	14.2685	82.54	27.1903	27.702	0	17.5299	1.0673	14.9555	18.4399	31.7216	30.1092	19.602	33.0813	7.33346	35.0206	18.9291	16.2897	9.5309	14.4524	9.39138	5.57
 33.4	0	0	37975.1	23234.7	13692.9	11752.3	7953.94	6885.44	4826.48	4407.04	3551.25	2651.23	2365.38	2356.76	1792.31	1492.66	1539.88	991.454	980.745	1041.74	674.626	687.917	634.783	886.913	437.92	387.248	217.526	341.449	325.258	319.106	234.88	263.908	246.839	97.509	84.0905	72.4138	112.939	128.761	105.044	151.701	114.569	74.1533	86.0256	28.9785	26.6769	91.5957	62.1126	18.7114	109.125	51.0139	36.9153	18.0508	35.2952	27.0153	29.6607	10.1315	42.9755	67.1631	0	45.3032	27.6258	13.0136	3.67549	17.2704	30.1255	1.96382	3.69136	5.88132	42.2305	25.7551	0	17.9604	3.43343	44.9415
 34.6	0	0	40530.3	24399	15475.5	13416	9254.69	7849.95	6714.23	5284.78	4635.56	3560.36	2897.88	2576.11	2261	1708.41	1733.45	1504.65	1038.67	1138.52	1077.18	829.246	902.686	779.514	519.564	359.875	649.23	546.645	382.285	301.015	274.77	255.813	270.673	151.047	193.965	193.439	231.248	85.6217	162.889	105.156	31.5666	133.842	138.34	125.059	51.9973	92.104	145.607	55.0478	72.7212	0	40.8982	44.5154	40.7587	8.90038	42.574	1.72488	38.5789	89.5346	7.61865	45.696	9.68486	45.382	2.11567	38.234	59.0164	10.9592	1.55072	58.8207	74.3213	28.9269	63.7606	15.8771	9.27634	2.47446
 35.9	0	0	44400.1	27049.1	17145.1	13898.2	11219.3	8116.97	7096.35	5624.64	4549.2	4203.94	3345.47	3250.93	2553.87	2705.7	1868.83	1634.33	1454.3	1537.17	1056.64	1168.59	974.392	969.9	869.029	714.246	672.356	715.364	435.203	519.158	401.002	615.285	201.489	294.359	227.423	149.794	208.28	226.873	243.997	178.945	87.6149	95.1382	50.6837	83.8528	99.537	118.829	115.199	90.3935	104.713	88.8371	43.0606	119.806	40.6754	54.8887	72.8839	20.3537	13.1862	3.01107	12.9715	50.1318	61.2013	29.6102	19.6985	43.5765	23.1809	20.4336	36.7614	57.6353	34.4208	24.714	0.153574	16.5013	14.9651	28.9905
 37.2	0	0	44635.4	29350.1	18358.1	16309.8	12469.6	10690.2	8250.81	6845.61	6008.49	5053.23	4396.95	4171.24	3218.38	2963.97	2676.31	1826.12	1915.66	1428.34	1747.92	1247.74	1159.95	858.52	1053.42	889.445	737.089	664.976	604.864	714.402	485.928	469.807	299.892	358.007	391.213	511.597	262.684	259.8	167.313	144.821	169.309	122.866	235.538	133.813	155.755	136.903	173.644	32.8865	128.222	118.129	25.2025	87.9873	49.0698	67.3703	87.2751	82.4321	80.5122	94.6909	76.6134	61.4796	59.8299	39.846	52.7047	43.9433	58.4091	45.1453	38.8264	34.9222	49.3579	2.11986	0	41.5471	11.1823	13.8039
 38.5	0	4207.77	47304	30738.2	20604.7	16645.7	14434	11365.2	8819	8147.56	6922.93	5673.55	5325.03	4548.72	3751.71	3555.91	3262.99	2326.95	1783.47	1722.47	1887.04	1621.39	1287.29	1248.83	1123.02	984.846	814.786	952.529	684.245	856.704	658.414	584.716	430.196	574.473	445.464	300.122	317.154	288.772	328.97	243.772	179.205	230.119	191.227	202.107	102.975	147.417	169.66	74.6555	108.334	65.0295	127.578	164.85	98.7766	105.845	71.4258	77.2391	63.9104	80.4027	86.7081	59.0359	195.772	19.602	70.7072	72.0131	14.7632	34.5047	8.96912	7.60278	69.1802	58.6356	21.4572	64.4845	0	64.1086
 40.0	0	23926.5	51807.9	33565.2	22469.9	18279.7	15187.9	12958.4	11556.8	9377.28	7637.63	6847.47	5489.44	5294.55	4607.67	4299.71	3845.34	2977.8	2593.04	2392.6	1910.74	1977.6	1695.49	1525.8	1237.13	1060.82	1054.85	919.5	766.806	701.557	854.108	718.257	537.055	369.714	554.486	627.977	334.083	449.984	345.041	225.852	291.838	185.579	303.153	207.562	109.672	317.914	218.96	130.148	185.031	160.191	121.253	142.302	166.736	130.314	151.61	72.7251	122.49	98.9355	123.977	90.3415	88.7491	138.645	34.3966	49.6568	60.128	7.74624	27.5542	76.9235	45.775	72.0211	0.666152	14.4099	51.4489	17.6321
 41.4	0	36078.2	51679	35310.9	25384.9	23029.3	17287	14241.7	12269.4	11131.9	9128.75	7832.99	6703.92	5694.56	5467.66	4663.48	4213.31	3407.53	2916.74	3089.48	2638.94	2250.65	1778.48	1978.36	1708.54	1319.63	1245.92	1253.26	1022.08	981.646	922.835	827.343	663.837	678.839	604.047	584.422	567.751	446.847	464.985	448.541	580.122	330.105	211.608	255.288	183.204	271.01	278.924	265.744	211.569	188.85	164.149	102.933	130.973	106.28	83.9166	221.693	92.2023	106.507	159.929	71.2016	25.9285	68.3029	89.3682	32.222	64.7258	30.7415	5.13186	35.0848	16.3136	44.154	100.511	36.8733	83.5914	64.7225
 42.9	0	60880.1	54058	39290	25397.4	24654.8	19783	16623.4	13789.5	12527	10418.5	8544.75	7887.02	7394.68	6133.27	5460.26	5101.5	4425.87	3532.48	3237.56	3074.61	2701.62	2148.35	2059.14	1898.37	1817.18	1750	1725.69	1212.1	1269.98	1000.08	918.476	1029.26	460.774	745.124	565.334	599.585	657.751	530.585	507.564	451.81	404.851	332.278	284.667	559.304	440.778	351.069	229.973	239.913	337.628	251.479	181.909	168.491	151.069	136.371	169.939	279.92	162.857	147.459	94.8757	123.023	150.001	70.418	112.568	71.2602	85.6367	79.9056	69.1683	72.4477	7.12492	31.8903	45.172	38.4782	65.3879
 44.5	0	50454.6	54432.7	38783.7	27918.9	26025.2	22333.3	18507.3	15696.7	14521.5	12261.6	11060.9	9553.41	8158.04	7306.75	5991.48	5225.13	4723.61	4386.34	3867.15	3698.84	2708.89	3071.89	2377.59	2721.48	1890.59	2229.63	1936.39	1522.19	1509.73	1588.91	788.042	921.521	801.585	859.83	866.71	634.084	579.625	610.925	510.583	393.406	541.028	443.134	443.277	483.037	456.749	293.305	252.932	376.767	373.948	241.417	164.713	160.126	211.023	164.612	284.645	160.115	99.1161	178.938	162.733	138.208	165.103	146.264	180.125	117.343	121.548	95.2215	65.6082	102.046	55.8645	32.1603	119.542	59.1191	68.9017
 46.1	0	49303.1	56815.5	41671.8	32134.2	28819.6	24789.5	19928.5	18043.3	14852.4	14505.7	11867.5	11176.9	9291.61	8602.34	7224.55	6801.98	5106.24	5155.07	4645.29	4225.26	3669.93	3158.75	3094.73	2802.49	2416.59	2419.34	1883.68	2109.9	1713.78	1361.49	1382.04	1023.11	944.23	978.518	856.872	862.603	834.954	756.006	749.883	687.418	644.928	632.754	553.136	592.274	523.514	465.214	423.468	458.865	363.904	244.054	340.506	330.1	408.87	241.082	220.961	211.724	267.706	147.352	236.248	231.172	127.343	121.07	169.701	121.228	80.6537	99.6887	45.3986	135.725	69.0785	54.7607	90.9517	68.8563	14.4419
 47.8	0	49682.1	58651.9	43280	30110.9	29505.2	27253.5	22670.1	20274.5	17273.4	16111.8	13419.8	12988.6	10775.8	10011	8020.97	7520.08	6760.23	5740.15	5374.59	5015.69	4345.55	4030.74	3554.24	3177.66	3202.29	2629.02	2389.77	2468.87	2133.11	1825.13	1611.78	1426.18	1229.97	1309.6	993.031	1186.69	980.607	887.574	769.82	804.82	673.286	630.869	615.168	638.474	561.203	413.739	543.414	440.035	376.708	432.867	334.476	336.596	232.231	343.906	237.028	219.143	191.371	227.667	273.812	147.413	212.737	163.867	129.265	105.131	188.153	162.735	121.17	116.911	67.7907	110.345	142.182	62.3829	55.1817
 49.6	0	27937.4	60511.7	46290.5	33236	33448.4	29735.7	25034.7	21769.1	20051.4	17908.1	14793.2	14279.2	13151.2	11597.4	9478.71	8994.41	7318.2	6710.74	6917.24	5423.99	5285.24	4815.62	4170.71	3615.07	3427.54	3455.11	3189.07	2631.59	2630.5	2722.78	1657.53	1987.94	1354.83	1238.25	1289.63	1197.04	1191.94	1004.25	980.964	936.486	887.468	827.167	825.858	708.877	629.515	505.125	690.75	519.247	557.721	535.164	420.786	430.858	480.601	424.742	406.96	338.019	257.877	268.451	355.161	237.004	226.221	158.792	145.888	164.037	227.358	161.342	114.823	110.831	91.5435	87.6816	28.6427	125.943	94.2372
 51.4	0	14648.5	60648	47100.3	35336.8	34829.4	31878	28774	23510.7	22449	20129	17099.1	16545.3	14378.6	12166	11071.1	9982.36	8545.24	8244.19	6326.07	6883.02	5579.59	5122.89	4878.76	4875.92	4222.26	4311.81	3836.25	3324.52	3067.87	2549.61	2726.2	2379.45	1706.79	2089.57	1695.66	1412.41	1442.79	1083.7	1212.14	1084.02	873.561	922.07	860.514	804.896	693.035	786.695	625.52	662.87	732.913	697.618	548.098	478.177	403.363	356.115	304.718	411.557	301.745	313.386	347.441	258.001	227.2	206.605	149.124	281.044	190.612	242.208	133.641	169.863	152.846	166.284	151.594	114.124	68.6954
 53.3	0	28040.7	60718.9	49770.8	35024.4	36381.5	34983.2	29960.7	26687.2	24085.8	22351.6	18468.7	18182.8	16307.3	14053.5	13094.4	11960.1	10275.4	9295.14	9491.01	7134.92	6925.82	6601.46	5606.88	5397.81	4768.47	4263.57	4252.98	3453.47	3294.09	2925.55	2574.26	2374.76	1930.16	1807.39	1700.62	1656.14	1492.62	1761.12	1464.21	1256.4	1131.57	984.142	1180.75	1046.43	851.931	852.883	973.383	714.085	753.674	739.945	478.777	554.331	531.705	262.872	424.99	365.361	367.005	408.586	321.582	328.207	302.8	284.805	348.201	310.029	283.832	263.436	209.458	156.56	113.911	226.409	190.014	138.986	91.8583
 55.2	0	36085.4	65279.3	49437.1	37988	39147.3	38087.6	32788.2	28811.3	28843.3	24702.8	21227.7	20597.3	17733.3	15955.6	13459.6	13131.1	11926.4	10523	9875.15	8852.79	7735.58	6913.98	6817.29	6166.93	5769.39	5045.77	4696.53	4387.9	3510.02	3825.53	3033	2706.51	2446.2	2712.76	2114.04	1909.96	1899.09	1718.74	1375.38	1383.86	1463.7	1402.74	1373.25	1108.12	1087.69	800.538	968.766	922.273	777.288	819.24	620.707	581.818	424.89	424.771	472.881	528.067	336.424	415.933	293.644	367.345	350.766	282.372	383.975	322.31	322.654	338.154	267.059	209.133	177.029	254.051	173.581	204.083	176.127
 57.3	0	49789.6	61258.4	51924	39379.1	41219.8	41388.6	36047.9	33307.8	29984.5	28782	23398.5	20672.2	20372.7	18374.8	14810.2	15961.8	13552.2	11755.7	11435.7	9843.55	9311.08	8591.92	7613.08	7244.86	6377.06	5732.46	5401.95	5046.51	4405.58	3398.93	3684.07	3356.6	2708	2517.21	2317.11	2394.41	2281.64	2032.24	1613.37	1558.75	1345.8	1517.2	1375.42	1504.42	1211.75	1297.45	1041.19	1006.27	948.05	840.524	812.548	802.324	623.586	610.802	610.985	624.585	586.851	472.961	408.974	310.416	382.657	372.669	249.756	501.044	349.708	250.983	345.362	320.083	229.484	150.934	255.05	203.372	150.059
 59.4	0	53239.5	61363.9	54788.6	44492.2	43471.5	42832.6	38494.2	32906.4	32530.9	31155.7	25165.6	24602.3	21823.3	20319.8	17901	16850.9	14687.1	13568.1	12433	11233.7	10265.3	10116.2	7699.58	8225.65	7208.16	6418.97	6521.24	6139.13	5154.19	4346.75	4278.88	3380.92	2964.98	2792.15	2719.44	2605.19	2573.03	2384.95	1741.78	1453.81	2038.91	1529.28	1498.91	1361.38	1202.07	1294.62	1272.86	1092.96	1035.05	1023.67	1015.04	880.033	623.174	812.798	635.931	615.32	596.292	499.901	503.669	610.176	498.203	418.683	458.509	383.318	332.44	382.176	212.691	311.181	245.618	222.865	292.474	355.951	186.538
